Cloudy version 17.01, OIII spectra (quantities in log10)
density	temperature	eden	cool	O  3 (4363.209961 A)	O  3 (5006.839844 A)	
2.000	3.700	2.005	-19.900	-3.6119	0.0000	
2.000	3.750	2.007	-19.837	-3.3008	0.0000	
2.000	3.800	2.009	-19.756	-3.0234	0.0000	
2.000	3.850	2.012	-19.656	-2.7761	0.0000	
2.000	3.900	2.014	-19.541	-2.5560	0.0000	
2.000	3.950	2.015	-19.413	-2.3601	0.0000	
2.000	4.000	2.017	-19.273	-2.1858	0.0000	
2.000	4.050	2.019	-19.121	-2.0305	0.0000	
2.000	4.100	2.021	-18.954	-1.8922	0.0000	
2.000	4.150	2.022	-18.773	-1.7689	0.0000	
2.000	4.200	2.024	-18.583	-1.6591	0.0000	
2.000	4.250	2.026	-18.400	-1.5615	0.0000	
2.000	4.300	2.028	-18.241	-1.4751	0.0000	
2.000	4.350	2.031	-18.126	-1.3987	0.0000	
2.000	4.400	2.034	-18.060	-1.3310	0.0000	
2.000	4.450	2.036	-18.023	-1.2714	0.0000	
2.000	4.500	2.038	-17.988	-1.2185	0.0000	
2.000	4.550	2.039	-17.939	-1.1714	0.0000	
2.000	4.600	2.041	-17.878	-1.1296	0.0000	
2.000	4.650	2.041	-17.806	-1.0926	0.0000	
2.000	4.700	2.042	-17.727	-1.0599	0.0000	
2.000	4.750	2.043	-17.639	-1.0311	0.0000	
2.000	4.800	2.046	-17.541	-1.0056	0.0000	
2.000	4.850	2.053	-17.442	-0.9833	0.0000	
2.000	4.900	2.063	-17.367	-0.9637	0.0000	
2.000	4.950	2.071	-17.326	-0.9466	0.0000	
2.000	5.000	2.076	-17.313	-0.9318	0.0000	
2.050	3.700	2.055	-19.806	-3.6119	0.0000	
2.050	3.750	2.057	-19.742	-3.3007	0.0000	
2.050	3.800	2.059	-19.660	-3.0233	0.0000	
2.050	3.850	2.062	-19.559	-2.7761	0.0000	
2.050	3.900	2.064	-19.443	-2.5560	0.0000	
2.050	3.950	2.065	-19.314	-2.3601	0.0000	
2.050	4.000	2.067	-19.174	-2.1857	0.0000	
2.050	4.050	2.069	-19.022	-2.0304	0.0000	
2.050	4.100	2.071	-18.855	-1.8922	0.0000	
2.050	4.150	2.072	-18.673	-1.7688	0.0000	
2.050	4.200	2.074	-18.483	-1.6591	0.0000	
2.050	4.250	2.076	-18.300	-1.5615	0.0000	
2.050	4.300	2.078	-18.141	-1.4751	0.0000	
2.050	4.350	2.081	-18.026	-1.3987	0.0000	
2.050	4.400	2.084	-17.961	-1.3309	0.0000	
2.050	4.450	2.086	-17.924	-1.2714	0.0000	
2.050	4.500	2.088	-17.888	-1.2185	0.0000	
2.050	4.550	2.089	-17.839	-1.1714	0.0000	
2.050	4.600	2.091	-17.778	-1.1296	0.0000	
2.050	4.650	2.091	-17.706	-1.0926	0.0000	
2.050	4.700	2.092	-17.627	-1.0599	0.0000	
2.050	4.750	2.093	-17.539	-1.0310	0.0000	
2.050	4.800	2.096	-17.441	-1.0056	0.0000	
2.050	4.850	2.103	-17.342	-0.9833	0.0000	
2.050	4.900	2.113	-17.267	-0.9637	0.0000	
2.050	4.950	2.121	-17.226	-0.9466	0.0000	
2.050	5.000	2.126	-17.213	-0.9318	0.0000	
2.100	3.700	2.105	-19.712	-3.6118	0.0000	
2.100	3.750	2.107	-19.647	-3.3007	0.0000	
2.100	3.800	2.109	-19.564	-3.0233	0.0000	
2.100	3.850	2.112	-19.462	-2.7761	0.0000	
2.100	3.900	2.114	-19.345	-2.5560	0.0000	
2.100	3.950	2.115	-19.216	-2.3601	0.0000	
2.100	4.000	2.117	-19.076	-2.1857	0.0000	
2.100	4.050	2.119	-18.923	-2.0304	0.0000	
2.100	4.100	2.121	-18.756	-1.8922	0.0000	
2.100	4.150	2.122	-18.573	-1.7688	0.0000	
2.100	4.200	2.124	-18.383	-1.6590	0.0000	
2.100	4.250	2.126	-18.200	-1.5615	0.0000	
2.100	4.300	2.128	-18.041	-1.4751	0.0000	
2.100	4.350	2.131	-17.926	-1.3987	0.0000	
2.100	4.400	2.134	-17.861	-1.3309	0.0000	
2.100	4.450	2.136	-17.824	-1.2714	0.0000	
2.100	4.500	2.138	-17.788	-1.2184	0.0000	
2.100	4.550	2.139	-17.740	-1.1713	0.0000	
2.100	4.600	2.141	-17.678	-1.1296	0.0000	
2.100	4.650	2.141	-17.607	-1.0926	0.0000	
2.100	4.700	2.142	-17.527	-1.0599	0.0000	
2.100	4.750	2.143	-17.439	-1.0310	0.0000	
2.100	4.800	2.146	-17.341	-1.0056	0.0000	
2.100	4.850	2.153	-17.243	-0.9832	0.0000	
2.100	4.900	2.163	-17.167	-0.9637	0.0000	
2.100	4.950	2.171	-17.126	-0.9466	0.0000	
2.100	5.000	2.176	-17.113	-0.9318	0.0000	
2.150	3.700	2.155	-19.618	-3.6118	0.0000	
2.150	3.750	2.157	-19.552	-3.3006	0.0000	
2.150	3.800	2.159	-19.468	-3.0233	0.0000	
2.150	3.850	2.162	-19.366	-2.7761	0.0000	
2.150	3.900	2.164	-19.248	-2.5559	0.0000	
2.150	3.950	2.165	-19.118	-2.3601	0.0000	
2.150	4.000	2.167	-18.977	-2.1857	0.0000	
2.150	4.050	2.169	-18.824	-2.0304	0.0000	
2.150	4.100	2.171	-18.656	-1.8921	0.0000	
2.150	4.150	2.172	-18.474	-1.7688	0.0000	
2.150	4.200	2.174	-18.284	-1.6590	0.0000	
2.150	4.250	2.176	-18.101	-1.5614	0.0000	
2.150	4.300	2.178	-17.942	-1.4750	0.0000	
2.150	4.350	2.181	-17.827	-1.3987	0.0000	
2.150	4.400	2.184	-17.761	-1.3309	0.0000	
2.150	4.450	2.186	-17.724	-1.2713	0.0000	
2.150	4.500	2.188	-17.688	-1.2184	0.0000	
2.150	4.550	2.189	-17.640	-1.1713	0.0000	
2.150	4.600	2.191	-17.579	-1.1295	0.0000	
2.150	4.650	2.191	-17.507	-1.0926	0.0000	
2.150	4.700	2.192	-17.428	-1.0599	0.0000	
2.150	4.750	2.193	-17.340	-1.0310	0.0000	
2.150	4.800	2.196	-17.241	-1.0056	0.0000	
2.150	4.850	2.203	-17.143	-0.9832	0.0000	
2.150	4.900	2.213	-17.067	-0.9637	0.0000	
2.150	4.950	2.221	-17.026	-0.9466	0.0000	
2.150	5.000	2.226	-17.013	-0.9318	0.0000	
2.200	3.700	2.205	-19.525	-3.6117	0.0000	
2.200	3.750	2.207	-19.458	-3.3006	0.0000	
2.200	3.800	2.209	-19.372	-3.0232	0.0000	
2.200	3.850	2.212	-19.269	-2.7760	0.0000	
2.200	3.900	2.214	-19.150	-2.5559	0.0000	
2.200	3.950	2.215	-19.020	-2.3600	0.0000	
2.200	4.000	2.217	-18.879	-2.1856	0.0000	
2.200	4.050	2.219	-18.725	-2.0303	0.0000	
2.200	4.100	2.221	-18.557	-1.8921	0.0000	
2.200	4.150	2.222	-18.375	-1.7687	0.0000	
2.200	4.200	2.224	-18.184	-1.6590	0.0000	
2.200	4.250	2.226	-18.001	-1.5614	0.0000	
2.200	4.300	2.228	-17.842	-1.4750	0.0000	
2.200	4.350	2.231	-17.727	-1.3986	0.0000	
2.200	4.400	2.234	-17.661	-1.3308	0.0000	
2.200	4.450	2.236	-17.624	-1.2713	0.0000	
2.200	4.500	2.238	-17.588	-1.2184	0.0000	
2.200	4.550	2.239	-17.540	-1.1713	0.0000	
2.200	4.600	2.241	-17.479	-1.1295	0.0000	
2.200	4.650	2.241	-17.407	-1.0925	0.0000	
2.200	4.700	2.242	-17.328	-1.0598	0.0000	
2.200	4.750	2.243	-17.240	-1.0310	0.0000	
2.200	4.800	2.246	-17.142	-1.0055	0.0000	
2.200	4.850	2.253	-17.043	-0.9832	0.0000	
2.200	4.900	2.263	-16.967	-0.9637	0.0000	
2.200	4.950	2.271	-16.926	-0.9466	0.0000	
2.200	5.000	2.276	-16.912	-0.9318	0.0000	
2.250	3.700	2.255	-19.432	-3.6117	0.0000	
2.250	3.750	2.257	-19.364	-3.3005	0.0000	
2.250	3.800	2.259	-19.277	-3.0232	0.0000	
2.250	3.850	2.262	-19.173	-2.7760	0.0000	
2.250	3.900	2.264	-19.053	-2.5559	0.0000	
2.250	3.950	2.265	-18.922	-2.3600	0.0000	
2.250	4.000	2.267	-18.780	-2.1856	0.0000	
2.250	4.050	2.269	-18.626	-2.0303	0.0000	
2.250	4.100	2.271	-18.458	-1.8920	0.0000	
2.250	4.150	2.272	-18.275	-1.7687	0.0000	
2.250	4.200	2.274	-18.085	-1.6589	0.0000	
2.250	4.250	2.276	-17.901	-1.5614	0.0000	
2.250	4.300	2.278	-17.742	-1.4750	0.0000	
2.250	4.350	2.281	-17.627	-1.3986	0.0000	
2.250	4.400	2.284	-17.561	-1.3308	0.0000	
2.250	4.450	2.286	-17.524	-1.2713	0.0000	
2.250	4.500	2.288	-17.489	-1.2183	0.0000	
2.250	4.550	2.289	-17.441	-1.1712	0.0000	
2.250	4.600	2.291	-17.379	-1.1295	0.0000	
2.250	4.650	2.291	-17.308	-1.0925	0.0000	
2.250	4.700	2.292	-17.228	-1.0598	0.0000	
2.250	4.750	2.293	-17.140	-1.0309	0.0000	
2.250	4.800	2.296	-17.042	-1.0055	0.0000	
2.250	4.850	2.303	-16.943	-0.9832	0.0000	
2.250	4.900	2.313	-16.867	-0.9636	0.0000	
2.250	4.950	2.321	-16.826	-0.9466	0.0000	
2.250	5.000	2.326	-16.812	-0.9318	0.0000	
2.300	3.700	2.305	-19.339	-3.6116	0.0000	
2.300	3.750	2.307	-19.270	-3.3005	0.0000	
2.300	3.800	2.309	-19.182	-3.0232	0.0000	
2.300	3.850	2.312	-19.076	-2.7760	0.0000	
2.300	3.900	2.314	-18.956	-2.5558	0.0000	
2.300	3.950	2.315	-18.824	-2.3600	0.0000	
2.300	4.000	2.317	-18.682	-2.1856	0.0000	
2.300	4.050	2.319	-18.527	-2.0302	0.0000	
2.300	4.100	2.321	-18.359	-1.8920	0.0000	
2.300	4.150	2.322	-18.176	-1.7686	0.0000	
2.300	4.200	2.324	-17.985	-1.6589	0.0000	
2.300	4.250	2.326	-17.802	-1.5614	0.0000	
2.300	4.300	2.328	-17.642	-1.4749	0.0000	
2.300	4.350	2.331	-17.527	-1.3986	0.0000	
2.300	4.400	2.334	-17.462	-1.3308	0.0000	
2.300	4.450	2.336	-17.425	-1.2712	0.0000	
2.300	4.500	2.338	-17.389	-1.2183	0.0000	
2.300	4.550	2.339	-17.341	-1.1712	0.0000	
2.300	4.600	2.341	-17.280	-1.1294	0.0000	
2.300	4.650	2.341	-17.208	-1.0924	0.0000	
2.300	4.700	2.342	-17.128	-1.0598	0.0000	
2.300	4.750	2.343	-17.040	-1.0309	0.0000	
2.300	4.800	2.346	-16.942	-1.0055	0.0000	
2.300	4.850	2.353	-16.843	-0.9832	0.0000	
2.300	4.900	2.363	-16.767	-0.9636	0.0000	
2.300	4.950	2.371	-16.726	-0.9466	0.0000	
2.300	5.000	2.376	-16.712	-0.9318	0.0000	
2.350	3.700	2.355	-19.247	-3.6115	0.0000	
2.350	3.750	2.357	-19.176	-3.3004	0.0000	
2.350	3.800	2.359	-19.087	-3.0231	0.0000	
2.350	3.850	2.362	-18.980	-2.7759	0.0000	
2.350	3.900	2.364	-18.859	-2.5558	0.0000	
2.350	3.950	2.365	-18.726	-2.3599	0.0000	
2.350	4.000	2.367	-18.583	-2.1855	0.0000	
2.350	4.050	2.369	-18.429	-2.0302	0.0000	
2.350	4.100	2.371	-18.260	-1.8919	0.0000	
2.350	4.150	2.372	-18.077	-1.7686	0.0000	
2.350	4.200	2.374	-17.886	-1.6588	0.0000	
2.350	4.250	2.376	-17.702	-1.5613	0.0000	
2.350	4.300	2.378	-17.543	-1.4749	0.0000	
2.350	4.350	2.381	-17.428	-1.3985	0.0000	
2.350	4.400	2.384	-17.362	-1.3307	0.0000	
2.350	4.450	2.386	-17.325	-1.2712	0.0000	
2.350	4.500	2.388	-17.289	-1.2182	0.0000	
2.350	4.550	2.389	-17.241	-1.1711	0.0000	
2.350	4.600	2.391	-17.180	-1.1294	0.0000	
2.350	4.650	2.391	-17.109	-1.0924	0.0000	
2.350	4.700	2.392	-17.029	-1.0597	0.0000	
2.350	4.750	2.393	-16.940	-1.0309	0.0000	
2.350	4.800	2.396	-16.842	-1.0054	0.0000	
2.350	4.850	2.403	-16.743	-0.9831	0.0000	
2.350	4.900	2.413	-16.667	-0.9636	0.0000	
2.350	4.950	2.421	-16.626	-0.9466	0.0000	
2.350	5.000	2.426	-16.612	-0.9318	0.0000	
2.400	3.700	2.405	-19.155	-3.6114	0.0000	
2.400	3.750	2.407	-19.083	-3.3004	0.0000	
2.400	3.800	2.409	-18.992	-3.0230	0.0000	
2.400	3.850	2.412	-18.884	-2.7759	0.0000	
2.400	3.900	2.414	-18.762	-2.5558	0.0000	
2.400	3.950	2.415	-18.629	-2.3599	0.0000	
2.400	4.000	2.417	-18.485	-2.1854	0.0000	
2.400	4.050	2.419	-18.330	-2.0301	0.0000	
2.400	4.100	2.421	-18.161	-1.8919	0.0000	
2.400	4.150	2.422	-17.977	-1.7685	0.0000	
2.400	4.200	2.424	-17.786	-1.6588	0.0000	
2.400	4.250	2.426	-17.602	-1.5613	0.0000	
2.400	4.300	2.428	-17.443	-1.4749	0.0000	
2.400	4.350	2.431	-17.328	-1.3985	0.0000	
2.400	4.400	2.434	-17.262	-1.3307	0.0000	
2.400	4.450	2.436	-17.225	-1.2711	0.0000	
2.400	4.500	2.438	-17.190	-1.2182	0.0000	
2.400	4.550	2.439	-17.142	-1.1711	0.0000	
2.400	4.600	2.441	-17.081	-1.1293	0.0000	
2.400	4.650	2.441	-17.009	-1.0924	0.0000	
2.400	4.700	2.442	-16.929	-1.0597	0.0000	
2.400	4.750	2.443	-16.841	-1.0308	0.0000	
2.400	4.800	2.446	-16.742	-1.0054	0.0000	
2.400	4.850	2.453	-16.643	-0.9831	0.0000	
2.400	4.900	2.463	-16.567	-0.9636	0.0000	
2.400	4.950	2.471	-16.526	-0.9466	0.0000	
2.400	5.000	2.476	-16.512	-0.9318	0.0000	
2.450	3.700	2.455	-19.063	-3.6114	0.0000	
2.450	3.750	2.457	-18.990	-3.3003	0.0000	
2.450	3.800	2.459	-18.897	-3.0230	0.0000	
2.450	3.850	2.462	-18.788	-2.7758	0.0000	
2.450	3.900	2.464	-18.665	-2.5557	0.0000	
2.450	3.950	2.465	-18.531	-2.3598	0.0000	
2.450	4.000	2.467	-18.387	-2.1854	0.0000	
2.450	4.050	2.469	-18.231	-2.0300	0.0000	
2.450	4.100	2.471	-18.062	-1.8918	0.0000	
2.450	4.150	2.472	-17.878	-1.7684	0.0000	
2.450	4.200	2.474	-17.687	-1.6587	0.0000	
2.450	4.250	2.476	-17.503	-1.5612	0.0000	
2.450	4.300	2.478	-17.343	-1.4748	0.0000	
2.450	4.350	2.481	-17.228	-1.3984	0.0000	
2.450	4.400	2.484	-17.162	-1.3306	0.0000	
2.450	4.450	2.486	-17.126	-1.2710	0.0000	
2.450	4.500	2.488	-17.090	-1.2181	0.0000	
2.450	4.550	2.489	-17.042	-1.1710	0.0000	
2.450	4.600	2.491	-16.981	-1.1293	0.0000	
2.450	4.650	2.491	-16.909	-1.0923	0.0000	
2.450	4.700	2.492	-16.830	-1.0596	0.0000	
2.450	4.750	2.493	-16.741	-1.0308	0.0000	
2.450	4.800	2.496	-16.642	-1.0054	0.0000	
2.450	4.850	2.503	-16.543	-0.9831	0.0000	
2.450	4.900	2.513	-16.467	-0.9636	0.0000	
2.450	4.950	2.521	-16.426	-0.9466	0.0000	
2.450	5.000	2.526	-16.412	-0.9318	0.0000	
2.500	3.700	2.505	-18.972	-3.6113	0.0000	
2.500	3.750	2.507	-18.897	-3.3002	0.0000	
2.500	3.800	2.509	-18.803	-3.0229	0.0000	
2.500	3.850	2.512	-18.693	-2.7757	0.0000	
2.500	3.900	2.514	-18.569	-2.5556	0.0000	
2.500	3.950	2.515	-18.434	-2.3598	0.0000	
2.500	4.000	2.517	-18.289	-2.1853	0.0000	
2.500	4.050	2.519	-18.133	-2.0300	0.0000	
2.500	4.100	2.521	-17.963	-1.8917	0.0000	
2.500	4.150	2.522	-17.779	-1.7684	0.0000	
2.500	4.200	2.524	-17.587	-1.6587	0.0000	
2.500	4.250	2.526	-17.403	-1.5612	0.0000	
2.500	4.300	2.528	-17.244	-1.4747	0.0000	
2.500	4.350	2.531	-17.128	-1.3983	0.0000	
2.500	4.400	2.534	-17.063	-1.3305	0.0000	
2.500	4.450	2.536	-17.026	-1.2710	0.0000	
2.500	4.500	2.538	-16.990	-1.2181	0.0000	
2.500	4.550	2.539	-16.943	-1.1709	0.0000	
2.500	4.600	2.541	-16.882	-1.1292	0.0000	
2.500	4.650	2.541	-16.810	-1.0922	0.0000	
2.500	4.700	2.542	-16.730	-1.0596	0.0000	
2.500	4.750	2.543	-16.641	-1.0307	0.0000	
2.500	4.800	2.546	-16.542	-1.0053	0.0000	
2.500	4.850	2.553	-16.443	-0.9830	0.0000	
2.500	4.900	2.563	-16.367	-0.9635	0.0000	
2.500	4.950	2.571	-16.326	-0.9466	0.0000	
2.500	5.000	2.576	-16.312	-0.9318	0.0000	
2.550	3.700	2.555	-18.880	-3.6112	0.0000	
2.550	3.750	2.557	-18.804	-3.3001	0.0000	
2.550	3.800	2.559	-18.709	-3.0228	0.0000	
2.550	3.850	2.562	-18.597	-2.7757	0.0000	
2.550	3.900	2.564	-18.472	-2.5556	0.0000	
2.550	3.950	2.565	-18.336	-2.3597	0.0000	
2.550	4.000	2.567	-18.191	-2.1852	0.0000	
2.550	4.050	2.569	-18.035	-2.0299	0.0000	
2.550	4.100	2.571	-17.864	-1.8916	0.0000	
2.550	4.150	2.572	-17.680	-1.7683	0.0000	
2.550	4.200	2.574	-17.488	-1.6586	0.0000	
2.550	4.250	2.576	-17.304	-1.5611	0.0000	
2.550	4.300	2.578	-17.144	-1.4747	0.0000	
2.550	4.350	2.581	-17.029	-1.3983	0.0000	
2.550	4.400	2.584	-16.963	-1.3305	0.0000	
2.550	4.450	2.586	-16.926	-1.2709	0.0000	
2.550	4.500	2.588	-16.891	-1.2180	0.0000	
2.550	4.550	2.589	-16.843	-1.1709	0.0000	
2.550	4.600	2.591	-16.782	-1.1291	0.0000	
2.550	4.650	2.591	-16.711	-1.0922	0.0000	
2.550	4.700	2.592	-16.630	-1.0595	0.0000	
2.550	4.750	2.593	-16.541	-1.0307	0.0000	
2.550	4.800	2.596	-16.443	-1.0053	0.0000	
2.550	4.850	2.603	-16.343	-0.9830	0.0000	
2.550	4.900	2.613	-16.267	-0.9635	0.0000	
2.550	4.950	2.621	-16.226	-0.9465	0.0000	
2.550	5.000	2.626	-16.212	-0.9318	0.0000	
2.600	3.700	2.605	-18.790	-3.6110	0.0000	
2.600	3.750	2.607	-18.712	-3.3000	0.0000	
2.600	3.800	2.609	-18.615	-3.0227	0.0000	
2.600	3.850	2.612	-18.502	-2.7756	0.0000	
2.600	3.900	2.614	-18.376	-2.5555	0.0000	
2.600	3.950	2.615	-18.239	-2.3596	0.0000	
2.600	4.000	2.617	-18.093	-2.1851	0.0000	
2.600	4.050	2.619	-17.936	-2.0298	0.0000	
2.600	4.100	2.621	-17.766	-1.8915	0.0000	
2.600	4.150	2.622	-17.581	-1.7682	0.0000	
2.600	4.200	2.624	-17.389	-1.6585	0.0000	
2.600	4.250	2.626	-17.204	-1.5610	0.0000	
2.600	4.300	2.628	-17.045	-1.4746	0.0000	
2.600	4.350	2.631	-16.929	-1.3982	0.0000	
2.600	4.400	2.634	-16.864	-1.3304	0.0000	
2.600	4.450	2.636	-16.827	-1.2708	0.0000	
2.600	4.500	2.638	-16.791	-1.2179	0.0000	
2.600	4.550	2.640	-16.744	-1.1708	0.0000	
2.600	4.600	2.641	-16.683	-1.1291	0.0000	
2.600	4.650	2.641	-16.611	-1.0921	0.0000	
2.600	4.700	2.642	-16.531	-1.0594	0.0000	
2.600	4.750	2.643	-16.442	-1.0306	0.0000	
2.600	4.800	2.646	-16.343	-1.0052	0.0000	
2.600	4.850	2.653	-16.243	-0.9830	0.0000	
2.600	4.900	2.663	-16.167	-0.9635	0.0000	
2.600	4.950	2.671	-16.126	-0.9465	0.0000	
2.600	5.000	2.676	-16.112	-0.9318	0.0000	
2.650	3.700	2.655	-18.699	-3.6109	0.0000	
2.650	3.750	2.657	-18.619	-3.2999	0.0000	
2.650	3.800	2.659	-18.521	-3.0226	0.0000	
2.650	3.850	2.662	-18.407	-2.7755	0.0000	
2.650	3.900	2.664	-18.280	-2.5554	0.0000	
2.650	3.950	2.665	-18.142	-2.3595	0.0000	
2.650	4.000	2.667	-17.996	-2.1850	0.0000	
2.650	4.050	2.669	-17.838	-2.0297	0.0000	
2.650	4.100	2.671	-17.667	-1.8914	0.0000	
2.650	4.150	2.672	-17.482	-1.7681	0.0000	
2.650	4.200	2.674	-17.290	-1.6584	0.0000	
2.650	4.250	2.676	-17.105	-1.5609	0.0000	
2.650	4.300	2.678	-16.945	-1.4745	0.0000	
2.650	4.350	2.681	-16.830	-1.3981	0.0000	
2.650	4.400	2.684	-16.764	-1.3303	0.0000	
2.650	4.450	2.686	-16.727	-1.2707	0.0000	
2.650	4.500	2.688	-16.692	-1.2178	0.0000	
2.650	4.550	2.690	-16.645	-1.1707	0.0000	
2.650	4.600	2.691	-16.584	-1.1290	0.0000	
2.650	4.650	2.691	-16.512	-1.0920	0.0000	
2.650	4.700	2.692	-16.431	-1.0594	0.0000	
2.650	4.750	2.693	-16.342	-1.0306	0.0000	
2.650	4.800	2.696	-16.243	-1.0052	0.0000	
2.650	4.850	2.703	-16.143	-0.9829	0.0000	
2.650	4.900	2.713	-16.067	-0.9634	0.0000	
2.650	4.950	2.721	-16.026	-0.9465	0.0000	
2.650	5.000	2.726	-16.012	-0.9318	0.0000	
2.700	3.700	2.705	-18.609	-3.6108	0.0000	
2.700	3.750	2.707	-18.527	-3.2997	0.0000	
2.700	3.800	2.709	-18.428	-3.0225	0.0000	
2.700	3.850	2.712	-18.312	-2.7754	0.0000	
2.700	3.900	2.714	-18.184	-2.5553	0.0000	
2.700	3.950	2.715	-18.045	-2.3594	0.0000	
2.700	4.000	2.717	-17.898	-2.1849	0.0000	
2.700	4.050	2.719	-17.740	-2.0296	0.0000	
2.700	4.100	2.721	-17.569	-1.8913	0.0000	
2.700	4.150	2.722	-17.383	-1.7680	0.0000	
2.700	4.200	2.724	-17.191	-1.6583	0.0000	
2.700	4.250	2.726	-17.006	-1.5608	0.0000	
2.700	4.300	2.728	-16.846	-1.4744	0.0000	
2.700	4.350	2.731	-16.730	-1.3980	0.0000	
2.700	4.400	2.734	-16.665	-1.3302	0.0000	
2.700	4.450	2.736	-16.628	-1.2706	0.0000	
2.700	4.500	2.738	-16.593	-1.2177	0.0000	
2.700	4.550	2.740	-16.545	-1.1706	0.0000	
2.700	4.600	2.741	-16.485	-1.1289	0.0000	
2.700	4.650	2.741	-16.413	-1.0920	0.0000	
2.700	4.700	2.742	-16.332	-1.0593	0.0000	
2.700	4.750	2.743	-16.243	-1.0305	0.0000	
2.700	4.800	2.746	-16.143	-1.0051	0.0000	
2.700	4.850	2.753	-16.043	-0.9829	0.0000	
2.700	4.900	2.763	-15.967	-0.9634	0.0000	
2.700	4.950	2.771	-15.926	-0.9465	0.0000	
2.700	5.000	2.776	-15.912	-0.9318	0.0000	
2.750	3.700	2.755	-18.519	-3.6106	0.0000	
2.750	3.750	2.757	-18.436	-3.2996	0.0000	
2.750	3.800	2.759	-18.334	-3.0224	0.0000	
2.750	3.850	2.762	-18.217	-2.7753	0.0000	
2.750	3.900	2.764	-18.088	-2.5552	0.0000	
2.750	3.950	2.765	-17.949	-2.3593	0.0000	
2.750	4.000	2.767	-17.801	-2.1848	0.0000	
2.750	4.050	2.769	-17.642	-2.0295	0.0000	
2.750	4.100	2.771	-17.470	-1.8912	0.0000	
2.750	4.150	2.772	-17.285	-1.7679	0.0000	
2.750	4.200	2.774	-17.092	-1.6582	0.0000	
2.750	4.250	2.776	-16.907	-1.5607	0.0000	
2.750	4.300	2.778	-16.746	-1.4743	0.0000	
2.750	4.350	2.781	-16.631	-1.3979	0.0000	
2.750	4.400	2.784	-16.565	-1.3301	0.0000	
2.750	4.450	2.786	-16.528	-1.2705	0.0000	
2.750	4.500	2.788	-16.493	-1.2176	0.0000	
2.750	4.550	2.790	-16.446	-1.1705	0.0000	
2.750	4.600	2.791	-16.385	-1.1288	0.0000	
2.750	4.650	2.791	-16.313	-1.0919	0.0000	
2.750	4.700	2.792	-16.233	-1.0592	0.0000	
2.750	4.750	2.793	-16.143	-1.0304	0.0000	
2.750	4.800	2.796	-16.043	-1.0050	0.0000	
2.750	4.850	2.803	-15.944	-0.9828	0.0000	
2.750	4.900	2.813	-15.867	-0.9633	0.0000	
2.750	4.950	2.821	-15.826	-0.9464	0.0000	
2.750	5.000	2.826	-15.812	-0.9317	0.0000	
2.800	3.700	2.805	-18.429	-3.6104	0.0000	
2.800	3.750	2.807	-18.344	-3.2994	0.0000	
2.800	3.800	2.809	-18.241	-3.0222	0.0000	
2.800	3.850	2.812	-18.123	-2.7751	0.0000	
2.800	3.900	2.814	-17.992	-2.5550	0.0000	
2.800	3.950	2.815	-17.852	-2.3591	0.0000	
2.800	4.000	2.817	-17.704	-2.1847	0.0000	
2.800	4.050	2.819	-17.545	-2.0293	0.0000	
2.800	4.100	2.821	-17.372	-1.8910	0.0000	
2.800	4.150	2.822	-17.186	-1.7677	0.0000	
2.800	4.200	2.824	-16.993	-1.6581	0.0000	
2.800	4.250	2.826	-16.807	-1.5606	0.0000	
2.800	4.300	2.828	-16.647	-1.4742	0.0000	
2.800	4.350	2.831	-16.531	-1.3978	0.0000	
2.800	4.400	2.834	-16.466	-1.3300	0.0000	
2.800	4.450	2.836	-16.429	-1.2704	0.0000	
2.800	4.500	2.838	-16.394	-1.2175	0.0000	
2.800	4.550	2.840	-16.347	-1.1704	0.0000	
2.800	4.600	2.841	-16.286	-1.1287	0.0000	
2.800	4.650	2.841	-16.214	-1.0918	0.0000	
2.800	4.700	2.842	-16.133	-1.0591	0.0000	
2.800	4.750	2.843	-16.043	-1.0303	0.0000	
2.800	4.800	2.846	-15.944	-1.0050	0.0000	
2.800	4.850	2.853	-15.844	-0.9827	0.0000	
2.800	4.900	2.863	-15.767	-0.9633	0.0000	
2.800	4.950	2.871	-15.726	-0.9464	0.0000	
2.800	5.000	2.876	-15.712	-0.9317	0.0000	
2.850	3.700	2.855	-18.339	-3.6103	0.0000	
2.850	3.750	2.857	-18.253	-3.2993	0.0000	
2.850	3.800	2.859	-18.148	-3.0220	0.0000	
2.850	3.850	2.862	-18.028	-2.7750	0.0000	
2.850	3.900	2.864	-17.897	-2.5549	0.0000	
2.850	3.950	2.865	-17.756	-2.3590	0.0000	
2.850	4.000	2.867	-17.607	-2.1845	0.0000	
2.850	4.050	2.869	-17.447	-2.0292	0.0000	
2.850	4.100	2.871	-17.274	-1.8909	0.0000	
2.850	4.150	2.872	-17.087	-1.7676	0.0000	
2.850	4.200	2.874	-16.894	-1.6579	0.0000	
2.850	4.250	2.876	-16.708	-1.5605	0.0000	
2.850	4.300	2.878	-16.548	-1.4741	0.0000	
2.850	4.350	2.881	-16.432	-1.3977	0.0000	
